Profilerstellung eines Magnetfeldes
Datum: 2022_03_04

Version: v3.0-52-g9982156-dirty

Experiment Aufbau:
------------------
Versorgung Hall-Sensor von Keithley - 2450 Sourcemeter
Magnetfeld aus - U_Hall:     2.0043 mV
Versorgungsspannung:         5 V
Strom-Limit:                 200 mA

Ger채t f체r die Messung:       KEITHLEY INSTRUMENTS,MODEL DAQ6510,04463273,1.0.04b
Ort der Messung:             Test-CZ
Startposition:               Mitte - 11.5 cm 체ber Boden - Abw채rts bis 3.5 cm
Geschwindigkeit Geradlinig:  10 mm/min
Geschwindigkeit Rotation:    0/min

Zeit [s]            Weg [mm]            Magnetische Flussdichte [mT]            
0.500000            114.916667          1.595909                                
7.000000            113.833333          1.601209                                
8.700000            113.550000          1.603985                                
10.400000           113.266667          1.614886                                
12.100000           112.983333          1.617056                                
13.800000           112.700000          1.624980                                
15.500000           112.416667          1.643705                                
17.100000           112.150000          1.631037                                
18.700000           111.883333          1.637194                                
20.300000           111.616667          1.643604                                
21.900000           111.350000          1.651679                                
23.600000           111.066667          1.648550                                
25.200000           110.800000          1.666265                                
26.800000           110.533333          1.661773                                
28.400000           110.266667          1.669041                                
30.100000           109.983333          1.672423                                
31.700000           109.716667          1.679387                                
33.300000           109.450000          1.706440                                
34.900000           109.183333          1.693469                                
36.500000           108.916667          1.692459                                
38.100000           108.650000          1.697557                                
39.800000           108.366667          1.698112                                
41.400000           108.100000          1.706843                                
43.000000           107.833333          1.724609                                
44.600000           107.566667          1.719461                                
46.200000           107.300000          1.723095                                
47.900000           107.016667          1.723448                                
49.500000           106.750000          1.736268                                
51.100000           106.483333          1.739800                                
52.700000           106.216667          1.740709                                
54.400000           105.933333          1.740457                                
56.000000           105.666667          1.748179                                
57.600000           105.400000          1.749895                                
59.200000           105.133333          1.752721                                
60.900000           104.850000          1.776745                                
62.500000           104.583333          1.760493                                
64.200000           104.300000          1.767055                                
65.800000           104.033333          1.767357                                
67.400000           103.766667          1.773565                                
69.100000           103.483333          1.784820                                
70.800000           103.200000          1.790977                                
72.400000           102.933333          1.787041                                
74.100000           102.650000          1.787848                                
75.700000           102.383333          1.792693                                
77.400000           102.100000          1.798447                                
79.000000           101.833333          1.826862                                
80.700000           101.550000          1.809450                                
82.300000           101.283333          1.807683                                
83.900000           101.016667          1.810308                                
85.500000           100.750000          1.812276                                
87.100000           100.483333          1.821108                                
88.700000           100.216667          1.826862                                
90.400000           99.933333           1.827266                                
92.000000           99.666667           1.827114                                
93.600000           99.400000           1.830496                                
95.200000           99.133333           1.839782                                
96.800000           98.866667           1.855630                                
98.500000           98.583333           1.843971                                
100.100000          98.316667           1.846798                                
101.700000          98.050000           1.845586                                
103.300000          97.783333           1.849574                                
105.000000          97.500000           1.852955                                
106.600000          97.233333           1.876020                                
108.200000          96.966667           1.859415                                
109.800000          96.700000           1.857296                                
111.400000          96.433333           1.863554                                
113.000000          96.166667           1.865775                                
114.700000          95.883333           1.863554                                
116.300000          95.616667           1.873143                                
117.900000          95.350000           1.871478                                
119.500000          95.083333           1.876525                                
121.100000          94.816667           1.877585                                
122.800000          94.533333           1.878695                                
124.400000          94.266667           1.897722                                
126.000000          94.000000           1.886215                                
127.600000          93.733333           1.882682                                
129.200000          93.466667           1.882682                                
130.900000          93.183333           1.881925                                
132.500000          92.916667           1.888385                                
134.100000          92.650000           1.908927                                
135.700000          92.383333           1.890808                                
137.300000          92.116667           1.888941                                
139.000000          91.833333           1.893887                                
140.600000          91.566667           1.897218                                
142.200000          91.300000           1.904183                                
143.800000          91.033333           1.905798                                
145.500000          90.750000           1.891969                                
147.100000          90.483333           1.903728                                
148.700000          90.216667           1.896562                                
150.300000          89.950000           1.897268                                
152.000000          89.666667           1.924522                                
153.600000          89.400000           1.903678                                
155.300000          89.116667           1.901306                                
156.900000          88.850000           1.905142                                
158.500000          88.583333           1.906353                                
160.200000          88.300000           1.903981                                
161.800000          88.033333           1.912964                                
163.400000          87.766667           1.907009                                
165.000000          87.500000           1.911349                                
166.700000          87.216667           1.906958                                
168.300000          86.950000           1.905697                                
170.000000          86.666667           1.932597                                
171.600000          86.400000           1.906504                                
173.200000          86.133333           1.905697                                
174.900000          85.850000           1.911905                                
176.500000          85.583333           1.911804                                
178.100000          85.316667           1.905949                                
179.800000          85.033333           1.924724                                
181.400000          84.766667           1.908321                                
183.000000          84.500000           1.906858                                
184.600000          84.233333           1.910340                                
186.200000          83.966667           1.908170                                
187.900000          83.683333           1.925077                                
189.500000          83.416667           1.912409                                
191.100000          83.150000           1.905697                                
192.700000          82.883333           1.901760                                
194.300000          82.616667           1.902921                                
196.000000          82.333333           1.900498                                
197.700000          82.050000           1.922100                                
199.300000          81.783333           1.904637                                
200.900000          81.516667           1.894543                                
202.600000          81.233333           1.898328                                
204.200000          80.966667           1.893685                                
205.900000          80.683333           1.895401                                
207.500000          80.416667           1.895451                                
209.200000          80.133333           1.893331                                
210.800000          79.866667           1.891918                                
212.500000          79.583333           1.886215                                
214.100000          79.316667           1.885054                                
215.700000          79.050000           1.902971                                
217.300000          78.783333           1.887729                                
218.900000          78.516667           1.878947                                
220.500000          78.250000           1.878796                                
222.100000          77.983333           1.876828                                
223.800000          77.700000           1.873396                                
225.400000          77.433333           1.885004                                
227.000000          77.166667           1.870822                                
228.600000          76.900000           1.867592                                
230.200000          76.633333           1.863554                                
231.800000          76.366667           1.866380                                
233.400000          76.100000           1.871427                                
235.100000          75.816667           1.866784                                
236.700000          75.550000           1.860122                                
238.300000          75.283333           1.854015                                
240.000000          75.000000           1.846697                                
241.600000          74.733333           1.852097                                
243.200000          74.466667           1.875616                                
244.800000          74.200000           1.845839                                
246.500000          73.916667           1.839177                                
248.100000          73.650000           1.838521                                
249.700000          73.383333           1.831051                                
251.300000          73.116667           1.826357                                
253.000000          72.833333           1.831758                                
254.600000          72.566667           1.823581                                
256.200000          72.300000           1.820099                                
257.900000          72.016667           1.818231                                
259.500000          71.750000           1.815758                                
261.100000          71.483333           1.829335                                
262.700000          71.216667           1.807279                                
264.400000          70.933333           1.799961                                
266.000000          70.666667           1.798851                                
267.600000          70.400000           1.789211                                
269.200000          70.133333           1.791129                                
270.800000          69.866667           1.798599                                
272.500000          69.583333           1.779167                                
274.100000          69.316667           1.781994                                
275.700000          69.050000           1.779268                                
277.300000          68.783333           1.771092                                
279.000000          68.500000           1.778663                                
280.600000          68.233333           1.765995                                
282.200000          67.966667           1.761250                                
283.800000          67.700000           1.746866                                
285.400000          67.433333           1.747876                                
287.000000          67.166667           1.742879                                
288.600000          66.900000           1.765742                                
290.300000          66.616667           1.737327                                
291.900000          66.350000           1.729807                                
293.500000          66.083333           1.722085                                
295.200000          65.800000           1.720369                                
296.800000          65.533333           1.721833                                
298.400000          65.266667           1.717846                                
300.000000          65.000000           1.711688                                
301.700000          64.716667           1.699273                                
303.300000          64.450000           1.698667                                
304.900000          64.183333           1.691601                                
306.500000          63.916667           1.708509                                
308.100000          63.650000           1.691399                                
309.800000          63.366667           1.676864                                
311.400000          63.100000           1.671565                                
313.000000          62.833333           1.664196                                
314.600000          62.566667           1.665205                                
316.200000          62.300000           1.671514                                
317.900000          62.016667           1.655010                                
319.500000          61.750000           1.643705                                
321.200000          61.466667           1.636992                                
322.800000          61.200000           1.629573                                
324.400000          60.933333           1.633964                                
326.000000          60.666667           1.627352                                
327.700000          60.383333           1.619126                                
329.300000          60.116667           1.606508                                
330.900000          59.850000           1.601613                                
332.500000          59.583333           1.595304                                
334.200000          59.300000           1.612009                                
335.800000          59.033333           1.586270                                
337.400000          58.766667           1.578699                                
339.000000          58.500000           1.577942                                
340.600000          58.233333           1.572390                                
342.300000          57.950000           1.566334                                
343.900000          57.683333           1.574359                                
345.500000          57.416667           1.556492                                
347.100000          57.150000           1.546499                                
348.700000          56.883333           1.536859                                
350.400000          56.600000           1.528229                                
352.000000          56.333333           1.540796                                
353.600000          56.066667           1.523787                                
355.200000          55.800000           1.511170                                
356.900000          55.516667           1.506476                                
358.500000          55.250000           1.499612                                
360.200000          54.966667           1.492294                                
361.800000          54.700000           1.504861                                
363.400000          54.433333           1.481745                                
365.100000          54.150000           1.470541                                
366.700000          53.883333           1.465544                                
368.400000          53.600000           1.459135                                
370.000000          53.333333           1.465191                                
371.600000          53.066667           1.448485                                
373.300000          52.783333           1.441066                                
374.900000          52.516667           1.435060                                
376.600000          52.233333           1.424411                                
378.200000          51.966667           1.421130                                
379.900000          51.683333           1.429811                                
381.500000          51.416667           1.407049                                
383.200000          51.133333           1.397813                                
384.800000          50.866667           1.395290                                
386.500000          50.583333           1.383681                                
388.100000          50.316667           1.378634                                
389.800000          50.033333           1.369600                                
391.400000          49.766667           1.359809                                
393.100000          49.483333           1.354207                                
394.700000          49.216667           1.349261                                
396.400000          48.933333           1.345223                                
398.000000          48.666667           1.346182                                
399.700000          48.383333           1.327003                                
401.400000          48.100000           1.321704                                
403.000000          47.833333           1.310550                                
404.600000          47.566667           1.301415                                
406.300000          47.283333           1.299900                                
408.000000          47.000000           1.291674                                
409.600000          46.733333           1.280469                                
411.300000          46.450000           1.275372                                
412.900000          46.183333           1.266338                                
414.600000          45.900000           1.260685                                
416.300000          45.616667           1.269517                                
417.900000          45.350000           1.247209                                
419.600000          45.066667           1.235652                                
421.200000          44.800000           1.226769                                
422.900000          44.516667           1.222025                                
424.600000          44.233333           1.216473                                
426.200000          43.966667           1.208700                                
427.900000          43.683333           1.197698                                
429.500000          43.416667           1.192298                                
431.200000          43.133333           1.184071                                
432.900000          42.850000           1.175037                                
434.500000          42.583333           1.182759                                
436.200000          42.300000           1.161864                                
437.900000          42.016667           1.151568                                
439.500000          41.750000           1.145209                                
441.200000          41.466667           1.135367                                
442.800000          41.200000           1.126636                                
444.500000          40.916667           1.123405                                
446.100000          40.650000           1.116037                                
447.700000          40.383333           1.103369                                
449.400000          40.100000           1.096555                                
451.000000          39.833333           1.093275                                
452.700000          39.550000           1.101148                                
454.300000          39.283333           1.078840                                
456.000000          39.000000           1.068191                                
457.600000          38.733333           1.061175                                
459.200000          38.466667           1.054513                                
460.900000          38.183333           1.048659                                
462.500000          37.916667           1.045681                                
464.100000          37.650000           1.031802                                
465.700000          37.383333           1.022364                                
467.300000          37.116667           1.015601                                
468.900000          36.850000           1.008081                                
470.600000          36.566667           1.011815                                
472.200000          36.300000           0.990668                                
473.800000          36.033333           0.987034                                
475.400000          35.766667           0.978555                                
477.000000          35.500000           0.968714                                
478.600000          35.233333           0.961547                                
480.300000          35.000000           0.968159                                
481.900000          35.000000           0.942671                                
483.500000          35.000000           0.936867                                
485.100000          35.000000           0.931012                                
486.800000          35.000000           0.921171                                
488.400000          35.000000           0.921272                                
