Profilerstellung eines Magnetfeldes
Datum: 2022_03_04

Version: v3.0-52-g9982156-dirty

Experiment Aufbau:
------------------
Versorgung Hall-Sensor von Keithley - 2450 Sourcemeter
Magnetfeld aus - U_Hall:     2.0043 mV
Versorgungsspannung:         5 V
Strom-Limit:                 200 mA

Ger채t f체r die Messung:       KEITHLEY INSTRUMENTS,MODEL DAQ6510,04463273,1.0.04b
Ort der Messung:             Test-CZ
Startposition:               Mitte - 3.5 cm 체ber Boden - Aufw채rts bis 11.5 cm
Geschwindigkeit Geradlinig:  10 mm/min
Geschwindigkeit Rotation:    0/min

Zeit [s]            Weg [mm]            Magnetische Flussdichte [mT]            
0.500000            114.916667          0.922331                                
7.000000            113.833333          0.929195                                
8.700000            113.550000          0.933586                                
10.400000           113.266667          0.940905                                
12.000000           113.000000          0.949888                                
13.700000           112.716667          0.960184                                
15.300000           112.450000          0.967755                                
16.900000           112.183333          0.971035                                
18.600000           111.900000          0.980271                                
20.200000           111.633333          0.988750                                
21.800000           111.366667          1.006062                                
23.400000           111.100000          1.001822                                
25.100000           110.816667          1.012270                                
26.700000           110.550000          1.019285                                
28.300000           110.283333          1.026048                                
30.000000           110.000000          1.032155                                
31.600000           109.733333          1.056179                                
33.200000           109.466667          1.050526                                
34.800000           109.200000          1.056229                                
36.500000           108.916667          1.060368                                
38.100000           108.650000          1.071522                                
39.700000           108.383333          1.077679                                
41.300000           108.116667          1.093628                                
43.000000           107.833333          1.093073                                
44.600000           107.566667          1.101249                                
46.200000           107.300000          1.109526                                
47.800000           107.033333          1.120175                                
49.500000           106.750000          1.141575                                
51.100000           106.483333          1.137638                                
52.700000           106.216667          1.140364                                
54.300000           105.950000          1.142837                                
56.000000           105.666667          1.155000                                
57.600000           105.400000          1.164589                                
59.300000           105.116667          1.173825                                
60.900000           104.850000          1.181951                                
62.500000           104.583333          1.188563                                
64.200000           104.300000          1.192399                                
65.800000           104.033333          1.197395                                
67.400000           103.766667          1.220511                                
69.000000           103.500000          1.215464                                
70.600000           103.233333          1.223741                                
72.300000           102.950000          1.231715                                
73.900000           102.683333          1.237065                                
75.500000           102.416667          1.243020                                
77.100000           102.150000          1.267902                                
78.800000           101.866667          1.255184                                
80.400000           101.600000          1.266893                                
82.000000           101.333333          1.273504                                
83.600000           101.066667          1.283043                                
85.200000           100.800000          1.288494                                
86.800000           100.533333          1.293693                                
88.500000           100.250000          1.301112                                
90.100000           99.983333           1.310550                                
91.700000           99.716667           1.320644                                
93.300000           99.450000           1.320846                                
94.900000           99.183333           1.347797                                
96.600000           98.900000           1.344365                                
98.200000           98.633333           1.346586                                
99.800000           98.366667           1.353147                                
101.400000          98.100000           1.361727                                
103.000000          97.833333           1.370155                                
104.700000          97.550000           1.388224                                
106.300000          97.283333           1.382571                                
107.900000          97.016667           1.388627                                
109.500000          96.750000           1.391807                                
111.200000          96.466667           1.400942                                
112.700000          96.216667           1.419112                                
114.400000          95.933333           1.422039                                
116.000000          95.666667           1.422695                                
117.600000          95.400000           1.430215                                
119.300000          95.116667           1.437735                                
120.900000          94.850000           1.447072                                
122.500000          94.583333           1.464686                                
124.100000          94.316667           1.457822                                
125.800000          94.033333           1.463576                                
127.400000          93.766667           1.471247                                
129.100000          93.483333           1.476749                                
130.800000          93.200000           1.484269                                
132.400000          92.933333           1.495019                                
134.100000          92.650000           1.498401                                
135.700000          92.383333           1.503549                                
137.400000          92.100000           1.511826                                
139.100000          91.816667           1.522778                                
140.700000          91.550000           1.548921                                
142.400000          91.266667           1.530853                                
144.000000          91.000000           1.534739                                
145.700000          90.716667           1.546751                                
147.300000          90.450000           1.547458                                
149.000000          90.166667           1.564567                                
150.600000          89.900000           1.568151                                
152.300000          89.616667           1.568151                                
153.900000          89.350000           1.573652                                
155.600000          89.066667           1.581677                                
157.300000          88.783333           1.583897                                
158.900000          88.516667           1.617713                                
160.500000          88.250000           1.601865                                
162.200000          87.966667           1.604893                                
163.900000          87.683333           1.613069                                
165.500000          87.416667           1.612363                                
167.100000          87.150000           1.624173                                
168.700000          86.883333           1.633560                                
170.400000          86.600000           1.635276                                
172.000000          86.333333           1.640323                                
173.700000          86.050000           1.642695                                
175.300000          85.783333           1.648399                                
176.900000          85.516667           1.677520                                
178.600000          85.233333           1.664852                                
180.200000          84.966667           1.669495                                
181.900000          84.683333           1.672170                                
183.600000          84.400000           1.682315                                
185.300000          84.116667           1.693166                                
187.100000          83.816667           1.694932                                
188.700000          83.550000           1.694024                                
190.400000          83.266667           1.704370                                
192.000000          83.000000           1.705329                                
193.700000          82.716667           1.709367                                
195.400000          82.433333           1.738236                                
197.000000          82.166667           1.719511                                
198.700000          81.883333           1.725416                                
200.300000          81.616667           1.731877                                
202.000000          81.333333           1.735864                                
203.700000          81.050000           1.734753                                
205.400000          80.766667           1.749491                                
207.000000          80.500000           1.745958                                
208.700000          80.216667           1.755244                                
210.300000          79.950000           1.759484                                
212.000000          79.666667           1.762260                                
213.600000          79.400000           1.787545                                
215.300000          79.116667           1.774676                                
216.900000          78.850000           1.765742                                
218.600000          78.566667           1.777350                                
220.200000          78.300000           1.783710                                
221.800000          78.033333           1.783558                                
223.400000          77.766667           1.793299                                
225.000000          77.500000           1.795217                                
226.600000          77.233333           1.801021                                
228.200000          76.966667           1.806926                                
229.800000          76.700000           1.803393                                
231.400000          76.433333           1.818837                                
233.000000          76.166667           1.815304                                
234.600000          75.900000           1.814699                                
236.300000          75.616667           1.817273                                
237.900000          75.350000           1.827569                                
239.500000          75.083333           1.828477                                
241.100000          74.816667           1.862847                                
242.800000          74.533333           1.833019                                
244.400000          74.266667           1.832868                                
246.000000          74.000000           1.835038                                
247.600000          73.733333           1.842760                                
249.200000          73.466667           1.850583                                
250.900000          73.183333           1.849422                                
252.500000          72.916667           1.850028                                
254.100000          72.650000           1.857043                                
255.700000          72.383333           1.856539                                
257.300000          72.116667           1.856589                                
259.000000          71.833333           1.881875                                
260.600000          71.566667           1.867188                                
262.200000          71.300000           1.870317                                
263.800000          71.033333           1.873698                                
265.400000          70.766667           1.874254                                
267.000000          70.500000           1.880361                                
268.700000          70.216667           1.879856                                
270.300000          69.950000           1.889849                                
271.900000          69.683333           1.883944                                
273.500000          69.416667           1.884045                                
275.100000          69.150000           1.878241                                
276.800000          68.866667           1.902366                                
278.400000          68.600000           1.886215                                
280.000000          68.333333           1.887275                                
281.600000          68.066667           1.894795                                
283.200000          67.800000           1.885105                                
284.900000          67.516667           1.892019                                
286.500000          67.250000           1.926894                                
288.100000          66.983333           1.899691                                
289.700000          66.716667           1.909078                                
291.300000          66.450000           1.909734                                
293.000000          66.166667           1.910239                                
294.600000          65.900000           1.898833                                
296.200000          65.633333           1.913267                                
297.800000          65.366667           1.902568                                
299.500000          65.083333           1.902820                                
301.100000          64.816667           1.907917                                
302.700000          64.550000           1.904183                                
304.300000          64.283333           1.924371                                
305.900000          64.016667           1.907261                                
307.600000          63.733333           1.911753                                
309.200000          63.466667           1.911652                                
310.800000          63.200000           1.914075                                
312.400000          62.933333           1.910794                                
314.000000          62.666667           1.938452                                
315.600000          62.400000           1.921948                                
317.300000          62.116667           1.911652                                
318.900000          61.850000           1.906151                                
320.500000          61.583333           1.917002                                
322.100000          61.316667           1.918264                                
323.800000          61.033333           1.922453                                
325.400000          60.766667           1.922251                                
327.000000          60.500000           1.914529                                
328.600000          60.233333           1.919223                                
330.200000          59.966667           1.913873                                
331.800000          59.700000           1.934212                                
333.500000          59.416667           1.922705                                
335.100000          59.150000           1.910037                                
336.700000          58.883333           1.914781                                
338.300000          58.616667           1.910239                                
339.900000          58.350000           1.909028                                
341.600000          58.066667           1.916396                                
343.200000          57.800000           1.915236                                
344.800000          57.533333           1.910542                                
346.400000          57.266667           1.900599                                
348.300000          56.950000           1.902769                                
349.900000          56.683333           1.920283                                
351.800000          56.366667           1.901659                                
353.400000          56.100000           1.894341                                
355.100000          55.816667           1.903678                                
356.700000          55.550000           1.895956                                
358.300000          55.283333           1.894492                                
359.900000          55.016667           1.905848                                
361.600000          54.733333           1.891212                                
363.200000          54.466667           1.884095                                
364.800000          54.200000           1.890757                                
366.400000          53.933333           1.882632                                
368.000000          53.666667           1.902467                                
369.700000          53.383333           1.885206                                
371.300000          53.116667           1.877332                                
372.900000          52.850000           1.880916                                
374.500000          52.583333           1.877484                                
376.100000          52.316667           1.867642                                
377.800000          52.033333           1.894240                                
379.400000          51.766667           1.874405                                
381.000000          51.500000           1.862746                                
382.600000          51.233333           1.859314                                
384.200000          50.966667           1.862494                                
385.900000          50.683333           1.858658                                
387.500000          50.416667           1.864059                                
389.100000          50.150000           1.854015                                
390.700000          49.883333           1.847757                                
392.300000          49.616667           1.845889                                
394.000000          49.333333           1.840590                                
395.600000          49.066667           1.863302                                
397.300000          48.783333           1.835795                                
398.900000          48.516667           1.832616                                
400.500000          48.250000           1.830698                                
402.200000          47.966667           1.824187                                
403.800000          47.700000           1.825398                                
405.400000          47.433333           1.834483                                
407.000000          47.166667           1.818181                                
408.700000          46.883333           1.816314                                
410.300000          46.616667           1.810005                                
411.900000          46.350000           1.804907                                
413.600000          46.066667           1.812730                                
415.200000          45.800000           1.807027                                
416.800000          45.533333           1.796176                                
418.400000          45.266667           1.793652                                
420.100000          44.983333           1.788151                                
421.700000          44.716667           1.782751                                
423.400000          44.433333           1.803343                                
425.000000          44.166667           1.777653                                
426.600000          43.900000           1.770991                                
428.400000          43.600000           1.770688                                
430.200000          43.300000           1.762916                                
432.000000          43.000000           1.779975                                
433.600000          42.733333           1.757970                                
435.300000          42.450000           1.751611                                
437.000000          42.166667           1.750954                                
438.700000          41.883333           1.738942                                
440.300000          41.616667           1.741819                                
441.900000          41.350000           1.741819                                
443.600000          41.066667           1.725114                                
445.200000          40.800000           1.721126                                
446.800000          40.533333           1.723549                                
448.400000          40.266667           1.714515                                
450.100000          39.983333           1.731019                                
451.700000          39.716667           1.710780                                
453.300000          39.450000           1.701191                                
454.900000          39.183333           1.696749                                
456.600000          38.900000           1.694226                                
458.200000          38.633333           1.688068                                
459.800000          38.366667           1.706238                                
461.400000          38.100000           1.678378                                
463.000000          37.833333           1.671211                                
464.600000          37.566667           1.667224                                
466.300000          37.283333           1.661218                                
467.900000          37.016667           1.657534                                
469.500000          36.750000           1.652537                                
471.100000          36.483333           1.646632                                
472.700000          36.216667           1.640525                                
474.300000          35.950000           1.637043                                
475.900000          35.683333           1.628614                                
477.500000          35.416667           1.641080                                
479.100000          35.150000           1.619126                                
480.800000          35.000000           1.616956                                
482.400000          35.000000           1.611555                                
484.000000          35.000000           1.606761                                
485.600000          35.000000           1.598887                                
487.200000          35.000000           1.616350                                
